Time (s),Vocal Tract Length (cm),f1 (Hz),f2 (Hz)
0.0000,7.94,1080.23,3522.50
0.1700,30.43,281.80,4837.57
0.2100,20.29,422.70,6105.68
0.3800,7.94,1080.23,4320.94
0.4500,30.43,281.80,6293.54
0.5100,9.61,892.37,4978.47
0.5700,8.30,1033.27,5025.44
0.5800,9.61,892.37,5401.17
0.7500,7.94,1080.23,6152.64
0.9100,36.52,234.83,21698.63
0.9200,30.43,281.80,5213.31
0.9300,60.86,140.90,5307.24
1.2500,22.82,375.73,3663.41
1.6800,15.21,563.60,5917.81
1.6900,30.43,281.80,5776.91
1.7000,26.08,328.77,5636.01
1.7100,26.08,328.77,5542.07
1.7200,36.52,234.83,5870.84
1.9400,60.86,140.90,3992.17
1.9500,30.43,281.80,17236.79
1.9600,26.08,328.77,21698.63
1.9700,22.82,375.73,12634.05
1.9800,22.82,375.73,17142.86
1.9900,26.08,328.77,21604.70
2.0100,30.43,281.80,21604.70
2.0500,45.64,187.87,19021.53
2.0600,30.43,281.80,21651.66
2.3000,30.43,281.80,21416.83
2.4800,45.64,187.87,2630.14
2.4900,26.08,328.77,2630.14
2.5000,36.52,234.83,8594.91
2.6000,36.52,234.83,7843.44
2.6100,45.64,187.87,17142.86
2.7100,16.60,516.63,13855.19
2.7200,16.60,516.63,14043.05
2.7500,13.04,657.53,4414.87
2.7600,10.74,798.43,4227.01
2.7800,26.08,328.77,5354.21
2.8000,11.41,751.47,5448.14
2.8200,18.26,469.67,21651.66
2.8300,20.29,422.70,21557.73
3.1900,60.86,140.90,6152.64
3.2400,30.43,281.80,5823.87
3.2500,30.43,281.80,5495.11
3.3400,30.43,281.80,12446.18
3.3500,36.52,234.83,12727.98
3.3600,36.52,234.83,12868.88
3.5800,7.94,1080.23,12587.08
3.5900,8.69,986.30,17095.89
3.6000,13.04,657.53,21557.73
3.6800,60.86,140.90,21651.66
3.6900,45.64,187.87,21604.70
3.7100,45.64,187.87,5307.24
3.7200,45.64,187.87,5260.27
3.7800,7.94,1080.23,6904.11
3.7900,13.04,657.53,6716.24
3.8000,14.04,610.57,6669.28
3.8100,20.29,422.70,5729.94
3.8200,22.82,375.73,19256.36
3.8800,30.43,281.80,21135.03
3.9000,18.26,469.67,21510.76
3.9100,20.29,422.70,21651.66
3.9800,7.30,1174.17,2489.24
4.0100,15.21,563.60,21510.76
4.0300,15.21,563.60,5729.94
4.0400,15.21,563.60,5870.84
4.0500,15.21,563.60,5823.87
4.0600,16.60,516.63,14841.49
4.2900,11.41,751.47,5213.31
4.3000,30.43,281.80,5166.34
